# lambda(nm) intensity
1289.01	3512
1289.06	4289
1289.11	5123
1289.16	5876
1289.21	6432
1289.26	6678
1289.31	6543
1289.37	6012
1289.42	5234
1289.47	4345
1289.52	3456
1289.57	2678
1289.62	2123
1289.67	1890
1289.72	2012
1289.77	2456
1289.82	3234
1289.87	4123
1289.93	5012
1289.98	5789
1290.03	6345
1290.08	6567
1290.13	6456
1290.18	5890
1290.23	5012
1290.28	4012
1290.33	3012
1290.39	2234
1290.44	1678
1290.49	1456
1290.54	1678
1290.59	2234
1290.64	3012
1290.69	4012
1290.74	4890
1290.79	5678
1290.84	6123
1290.90	6234
1290.95	5890
1291.00	5123
1291.05	4123
1291.10	3123
1291.15	2123
1291.20	1456
1291.25	1123
1291.30	1234
1291.36	1789
1291.41	2678
1291.46	3678
1291.51	4678
1291.56	5456
1291.61	5890
1291.66	5890
1291.71	5456
1291.76	4678
1291.82	3678
1291.87	2678
1291.92	1789
1291.97	1234
1292.02	1012
1292.07	1234
1292.12	1890
1292.17	2890
1292.22	3890
1292.28	4890
1292.33	5567
1292.38	5789
1292.43	5567
1292.48	4890
1292.53	3890
1292.58	2890
1292.63	1890
1292.68	1234
1292.74	1012
1292.79	1234
1292.84	1890
1292.89	2890
1292.94	4012
1292.99	5012
1293.04	5678
1293.09	5890
1293.14	5567
1293.20	4789
1293.25	3789
1293.30	2678
1293.35	1678
1293.40	1123
1293.45	1012
1293.50	1345
1293.55	2123
1293.60	3123
1293.66	4234
1293.71	5234
1293.76	5890
1293.81	6012
1293.86	5678
1293.91	4890
1293.96	3890
1294.01	2789
1294.06	1789
1294.12	1123
1294.17	1012
1294.22	1345
1294.27	2123
1294.32	3234
1294.37	4345
1294.42	5345
1294.47	6012
1294.52	6123
1294.58	5789
1294.63	5012
1294.68	3890
1294.73	2789
1294.78	1789
1294.83	1123
1294.88	1012
1294.93	1456
1294.98	2345
1295.04	3456
1295.09	4567
1295.14	5567
1295.19	6123
1295.24	6234
1295.29	5789
1295.34	4890
1295.39	3789
1295.44	2678
1295.50	1678
1295.55	1123
1295.60	1123
1295.65	1567
1295.70	2456
1295.75	3567
1295.80	4789
1295.85	5789
1295.90	6345
1295.96	6345
1296.01	5789
1296.06	4890
1296.11	3789
1296.16	2567
1296.21	1567
1296.26	1012
1296.31	1012
1296.36	1456
1296.42	2345
1296.47	3456
1296.52	4678
1296.57	5678
1296.62	6234
1296.67	6234
1296.72	5678
1296.77	4678
1296.82	3456
1296.88	2345
1296.93	1456
1296.98	1012
1297.03	1123
1297.08	1678
1297.13	2678
1297.18	3789
1297.23	4890
1297.28	5890
1297.34	6345
1297.39	6123
1297.44	5456
1297.49	4345
1297.54	3123
1297.59	2012
1297.64	1234
1297.69	1012
1297.74	1234
1297.80	1890
1297.85	2890
1297.90	4012
1297.95	5123
1298.00	5890
1298.05	6123
1298.10	5890
1298.15	5012
1298.20	3890
1298.26	2789
1298.31	1789
1298.36	1123
1298.41	1012
1298.46	1345
1298.51	2123
1298.56	3234
1298.61	4345
1298.66	5345
1298.72	5890
1298.77	6012
1298.82	5567
1298.87	4678
1298.92	3567
1298.97	2456
1299.02	1567
1299.07	1012
1299.12	1012
1299.18	1456
1299.23	2345
1299.28	3456
1299.33	4567
1299.38	5456
1299.43	5890
1299.48	5890
1299.53	5234
1299.58	4234
1299.64	3012
1299.69	1890
1299.74	1123
1299.79	1012
1299.84	1234
1299.89	1890
1299.94	2890
1299.99	4012
1300.04	5012
1300.10	5678
1300.15	5890
1300.20	5567
1300.25	4789
1300.30	3678
1300.35	2567
1300.40	1567
1300.45	1012
1300.50	1012
1300.56	1345
1300.61	2123
1300.66	3123
1300.71	4234
1300.76	5123
1300.81	5678
1300.86	5789
1300.91	5345
1300.96	4456
1301.02	3345
1301.07	2234
1301.12	1345
1301.17	1012
1301.22	1123
1301.27	1567
1301.32	2456
1301.37	3456
1301.42	4456
1301.48	5234
1301.53	5678
1301.58	5567
1301.63	4890
1301.68	3890
1301.73	2789
1301.78	1789
1301.83	1123
1301.88	1012
1301.94	1234
1301.99	1890
1302.04	2890
1302.09	3890
1302.14	4890
1302.19	5567
1302.24	5789
1302.29	5456
1302.34	4678
1302.40	3567
1302.45	2456
1302.50	1567
1302.55	1012
1302.60	1012
1302.65	1456
1302.70	2234
1302.75	3234
1302.80	4234
1302.86	5123
1302.91	5678
1302.96	5678
1303.01	5123
1303.06	4234
1303.11	3123
1303.16	2012
1303.21	1234
1303.26	1012
1303.32	1123
1303.37	1678
1303.42	2678
1303.47	3678
1303.52	4678
1303.57	5456
1303.62	5890
1303.67	5789
1303.73	5234
1303.78	4345
1303.83	3234
1303.88	2123
1303.93	1345
1303.98	1012
1304.03	1012
1304.08	1456
1304.13	2123
1304.19	3012
1304.24	4012
1304.29	4890
1304.34	5456
1304.39	5678
1304.44	5345
1304.49	4567
1304.54	3567
1304.59	2456
1304.65	1567
1304.70	1012
1304.75	1012
1304.80	1234
1304.85	1890
1304.90	2789
1304.95	3789
1305.00	4678
1305.05	5345
1305.11	5678
1305.16	5456
1305.21	4789
1305.26	3789
1305.31	2678
1305.36	1678
1305.41	1012
1305.46	1012
1305.52	1345
1305.57	2012
1305.62	3012
1305.67	3890
1305.72	4789
1305.77	5345
1305.82	5456
1305.87	5012
1305.92	4234
1305.98	3123
1306.03	2123
1306.08	1234
1306.13	1012
1306.18	1012
1306.23	1456
1306.28	2234
1306.33	3123
1306.38	4123
1306.44	4890
1306.49	5345
1306.54	5345
1306.59	4890
1306.64	4012
1306.69	3012
1306.74	1890
1306.79	1123
1306.84	1012
1306.90	1123
1306.95	1678
1307.00	2567
1307.05	3456
1307.10	4345
1307.15	5012
1307.20	5345
1307.25	5123
1307.30	4567
1307.36	3567
1307.41	2456
1307.46	1567
1307.51	1012
1307.56	1012
1307.61	1234
1307.66	1890
1307.71	2789
1307.76	3678
1307.82	4567
1307.87	5123
1307.92	5234
1307.97	4890
1308.02	4123
1308.07	3123
1308.12	2123
1308.17	1234
1308.23	1012
1308.28	1012
1308.33	1456
1308.38	2123
1308.43	3012
1308.48	3890
1308.53	4678
1308.58	5123
1308.63	5123
1308.69	4678
1308.74	3789
1308.79	2789
1308.84	1789
1308.89	1123
1308.94	1012
1308.99	1123
1309.04	1567
1309.09	2345
1309.15	3234
1309.20	4123
1309.25	4890
1309.30	5123
1309.35	4890
1309.40	4345
1309.45	3456
1309.50	2345
1309.55	1456
1309.61	1012
1309.66	1012
1309.71	1234
1309.76	1789
1309.81	2678
1309.86	3567
1309.91	4345
1309.96	4890
1310.01	4890
1310.07	4456
1310.12	3678
1310.17	2678
1310.22	1678
1310.27	1123
1310.32	1012
1310.37	1234
1310.42	1890
1310.47	2890
1310.53	3789
1310.58	4567
1310.63	5012
1310.68	4890
1310.73	4456
1310.78	3567
1310.83	2567
1310.88	1567
1310.93	1012
1310.99	1012
1311.04	1345
1311.09	1890
1311.14	2890
1311.19	3890
1311.24	4678
1311.29	5123
1311.34	4890
1311.39	4345
1311.45	3456
1311.50	2456
1311.55	1456
1311.60	1012
1311.65	1012
1311.70	1345
1311.75	2012
1311.80	2890
1311.85	3890
1311.91	4678
1311.96	5123
1312.01	5012
1312.06	4456
1312.11	3678
1312.16	2678
1312.21	1678
1312.26	1123
1312.31	1012
1312.37	1345
1312.42	2012
1312.47	2890
1312.52	3789
1312.57	4456
1312.62	4890
1312.67	4789
1312.72	4234
1312.77	3345
1312.83	2345
1312.88	1456
1312.93	1012
1312.98	1012
1313.03	1345
1313.08	2012
1313.13	2890
1313.18	3678
1313.24	4345
1313.29	4789
1313.34	4678
1313.39	4123
1313.44	3234
1313.49	2345
1313.54	1456
1313.59	1012
1313.65	1012
1313.70	1345
1313.75	1890
1313.80	2789
1313.85	3678
1313.90	4345
1313.95	4678
1314.00	4567
1314.05	4012
1314.11	3123
1314.16	2123
1314.21	1345
1314.26	1012
1314.31	1012
1314.36	1345
1314.41	2012
1314.46	2789
1314.51	3567
1314.57	4234
1314.62	4567
1314.67	4345
1314.72	3789
1314.77	2890
1314.82	2012
1314.87	1234
1314.92	1012
1314.97	1123
1315.03	1456
1315.08	2234
1315.13	3012
1315.18	3789
1315.23	4234
1315.28	4456
1315.33	4123
1315.38	3456
1315.44	2567
1315.49	1678
1315.54	1123
1315.59	1012
1315.64	1234
1315.69	1678
1315.74	2456
1315.79	3234
1315.84	3890
1315.90	4345
1315.95	4456
1316.00	4012
1316.05	3234
1316.10	2345
1316.15	1567
1316.20	1012
1316.25	1012
1316.31	1234
1316.36	1678
1316.41	2345
1316.46	3123
1316.51	3789
1316.56	4123
1316.61	4123
1316.66	3789
1316.71	3012
1316.77	2234
1316.82	1456
1316.87	1012
1316.92	1012
1316.97	1345
1317.02	1890
1317.07	2678
1317.12	3345
1317.17	3890
1317.23	4123
1317.28	4012
1317.33	3567
1317.38	2789
1317.43	2012
1317.48	1345
1317.53	1012
1317.58	1012
1317.63	1456
1317.69	2012
1317.74	2789
1317.79	3456
1317.84	3890
1317.89	4012
1317.94	3678
1317.99	3012
1318.04	2234
1318.09	1567
1318.15	1012
1318.20	1012
1318.25	1234
1318.30	1789
1318.35	2456
1318.40	3123
1318.45	3678
1318.50	3890
1318.56	3789
1318.61	3234
1318.66	2456
1318.71	1789
1318.76	1234
1318.81	1012
1318.86	1012
1318.91	1456
1318.96	2012
1319.02	2789
1319.07	3456
1319.12	3789
1319.17	3789
1319.22	3456
1319.27	2789
1319.32	2012
1319.37	1456
1319.42	1012
1319.48	1012
1319.53	1234
1319.58	1678
1319.63	2345
1319.68	3012
1319.73	3567
1319.78	3678
1319.83	3567
1319.88	2890
1319.94	2123
1319.99	1567
1320.04	1123
1320.09	1012
1320.14	1012
1320.19	1345
1320.24	1890
1320.29	2567
1320.34	3123
1320.40	3567
1320.45	3567
1320.50	3234
1320.55	2678
1320.60	1890
1320.65	1345
1320.70	1012
1320.75	1012
1320.80	1123
1320.86	1567
1320.91	2234
1320.96	2890
1321.01	3345
1321.06	3456
1321.11	3234
1321.16	2678
1321.21	2012
1321.26	1345
1321.32	1012
1321.37	1012
1321.42	1123
1321.47	1456
1321.52	2012
1321.57	2678
1321.62	3123
1321.67	3345
1321.72	3234
1321.78	2678
1321.83	2123
1321.88	1456
1321.93	1012
1321.98	1012
1322.03	1012
1322.08	1345
1322.13	1890
1322.18	2456
1322.24	3012
1322.29	3234
1322.34	3123
1322.39	2789
1322.44	2123
1322.49	1567
1322.54	1123
1322.59	1012
1322.64	1012
1322.70	1234
1322.75	1678
1322.80	2234
1322.85	2789
1322.90	3123
1322.95	3012
1323.00	2678
1323.05	2123
1323.10	1456
1323.16	1123
1323.21	1012
1323.26	1012
1323.31	1123
1323.36	1567
1323.41	2123
1323.46	2678
1323.51	2890
1323.56	2890
1323.62	2678
1323.67	2123
1323.72	1567
1323.77	1123
1323.82	1012
1323.87	1012
1323.92	1012
1323.97	1345
1324.02	1789
1324.08	2345
1324.13	2789
1324.18	2890
1324.23	2678
1324.28	2234
1324.33	1678
1324.38	1234
1324.43	1012
1324.48	1012
1324.54	1012
1324.59	1234
1324.64	1678
1324.69	2123
1324.74	2567
1324.79	2678
1324.84	2567
1324.89	2234
1324.94	1789
1325.00	1345
1325.05	1012
1325.10	1012
1325.15	1012
1325.20	1123
1325.25	1456
1325.30	1890
1325.35	2345
1325.40	2567
1325.46	2456
1325.51	2123
1325.56	1678
1325.61	1234
1325.66	1012
1325.71	1012
1325.76	1012
1325.81	1012
1325.86	1345
1325.92	1678
1325.97	2012
1326.02	2345
1326.07	2345
1326.12	2123
1326.17	1789
1326.22	1345
1326.27	1123
1326.32	1012
1326.38	1012
1326.43	1012
1326.48	1123
1326.53	1456
1326.58	1789
1326.63	2123
1326.68	2234
1326.73	2012
1326.78	1678
1326.84	1345
1326.89	1123
1326.94	1012
1326.99	1012
1327.04	1012
1327.09	1012
1327.14	1234
1327.19	1567
1327.24	1890
1327.30	2012
1327.35	2012
1327.40	1789
1327.45	1456
1327.50	1234
1327.55	1012
1327.60	1012
1327.65	1012
1327.70	1012
1327.76	1012
1327.81	1234
1327.86	1456
1327.91	1789
1327.96	1890
1328.01	1789
1328.06	1567
1328.11	1234
1328.16	1123
1328.22	1012
1328.27	1012
1328.32	1012
1328.37	1012
1328.42	1012
1328.47	1234
1328.52	1456
1328.57	1678
1328.62	1789
1328.68	1678
1328.73	1456
1328.78	1234
1328.83	1012
1328.88	1012
1328.93	1012
1328.98	1012
1329.03	1012
1329.08	1012
1329.14	1123
1329.19	1345
1329.24	1567
1329.29	1567
1329.34	1567
1329.39	1345
1329.44	1123
1329.49	1012
1329.54	1012
1329.60	1012
1329.65	1012
1329.70	1012
1329.75	1012
1329.80	1123
1329.85	1234
1329.90	1345
1329.95	1456
1330.00	1345
1330.06	1234
1330.11	1123
1330.16	1012
1330.21	1012
1330.26	1012
1330.31	1012
1330.36	1012
1330.41	1012
1330.46	1012
1330.52	1123
1330.57	1234
1330.62	1234
1330.67	1234
1330.72	1123
1330.77	1012
1330.82	1012
1330.87	1012
1330.92	1012
1330.98	1012
1331.03	1012
1331.08	1012
1331.13	1012
1331.18	1012
1331.23	1123
1331.28	1123
1331.33	1123
1331.38	1012
1331.44	1012
1331.49	1012
1331.54	1012
1331.59	1012
1331.64	1012
1331.69	1012
1331.74	1012
1331.79	1012
1331.84	1012
1331.90	1012
1331.95	1012
1332.00	1012
1332.05	1012
1332.10	1012
1332.15	1012
1332.20	1012
1332.25	1012
1332.30	1012
1332.36	1012
1332.41	1012
1332.46	1012
1332.51	1012
1332.56	1012
1332.61	1012
1332.66	1012
1332.71	1012
1332.76	1012
1332.82	1012
1332.87	1012
1332.92	1012
1332.97	1012
1333.02	1012
1333.07	1012
1333.12	1012
1333.17	1012
1333.22	1012
1333.28	1012
1333.33	1012
1333.38	1012
1333.43	1012
1333.48	1012
1333.53	1012
1333.58	1012
1333.63	1012
1333.68	1012
1333.74	1012
1333.79	1012
1333.84	1012
1333.89	1012
1333.94	1012
1333.99	1012
1334.04	1012
1334.09	1012
1334.14	1012
1334.20	1012
1334.25	1012
1334.30	1012
1334.35	1012
1334.40	1012
1334.45	1012
1334.50	1012
1334.55	1012
1334.60	1012
1334.66	1012
1334.71	1012
1334.76	1012
1334.81	1012
1334.86	1012
1334.91	1012
1334.96	1012
1335.01	1012
1335.06	1012
1335.12	1012
1335.17	1012
1335.22	1012
1335.27	1012
1335.32	1012
1335.37	1012
1335.42	1012
1335.47	1012
1335.52	1012
1335.58	1012
1335.63	1012
1335.68	1012
1335.73	1012
1335.78	1012
1335.83	1012
1335.88	1012
1335.93	1012
1335.98	1012
1336.04	1012
1336.09	1012
1336.14	1012
1336.19	1012
1336.24	1012
1336.29	1012
1336.34	1012
1336.39	1012
1336.44	1012
1336.50	1012
1336.55	1012
1336.60	1012
1336.65	1012
1336.70	1012
1336.75	1012
1336.80	1012
1336.85	1012
1336.90	1012
1336.96	1012
1337.01	1012
1337.06	1012
1337.11	1012
1337.16	1012
1337.21	1012
1337.26	1012
1337.31	1012
1337.36	1012
1337.42	1012
1337.47	1012
1337.52	1012
1337.57	1012
1337.62	1012
1337.67	1012
1337.72	1012
1337.77	1012
1337.82	1012
1337.88	1012
1337.93	1012
1337.98	1012
1338.03	1012
1338.08	1012
1338.13	1012
1338.18	1012
1338.23	1012
1338.28	1012
1338.34	1012
1338.39	1012
1338.44	1012
1338.49	1012
1338.54	1012
1338.59	1012
1338.64	1012
1338.69	1012
1338.74	1012
1338.80	1012
1338.85	1012
1338.90	1012
1338.95	1012
1339.00	1012
1339.05	1012
1339.10	1012
1339.15	1012
1339.20	1012
1339.26	1012
1339.31	1012
1339.36	1012
1339.41	1012
1339.46	1012
1339.51	1012
1339.56	1012
1339.61	1012
1339.66	1012
1339.72	1012
1339.77	1012